# N = 400
# (S0, I0, R0) = (293.75, 5, 101.25)
# (a, b, c) = (4, 1, 0.5)
# time, S, I, R
0	293.75	5	101.25
0.0025	293.84	5.02428	101.136
0.005	293.929	5.0487	101.022
0.0075	294.018	5.07324	100.909
0.01	294.107	5.09791	100.795
0.0125	294.195	5.12271	100.682
0.015	294.283	5.14765	100.569
0.0175	294.371	5.17272	100.457
0.02	294.458	5.19792	100.344
0.0225	294.545	5.22326	100.232
0.025	294.632	5.24873	100.12
0.0275	294.718	5.27434	100.008
0.03	294.804	5.30008	99.8959
0.0325	294.89	5.32596	99.7844
0.035	294.975	5.35198	99.6731
0.0375	295.06	5.37814	99.562
0.04	295.145	5.40443	99.4511
0.0425	295.229	5.43087	99.3403
0.045	295.313	5.45745	99.2299
0.0475	295.396	5.48416	99.1196
0.05	295.479	5.51102	99.0095
0.0525	295.562	5.53803	98.8996
0.055	295.645	5.56518	98.7899
0.0575	295.727	5.59247	98.6804
0.06	295.809	5.61991	98.5712
0.0625	295.89	5.64749	98.4621
0.065	295.972	5.67522	98.3533
0.0675	296.052	5.7031	98.2446
0.07	296.133	5.73113	98.1362
0.0725	296.213	5.7593	98.0279
0.075	296.292	5.78763	97.9199
0.0775	296.372	5.81611	97.8121
0.08	296.451	5.84473	97.7044
0.0825	296.529	5.87352	97.597
0.085	296.608	5.90245	97.4898
0.0875	296.686	5.93154	97.3828
0.09	296.763	5.96078	97.276
0.0925	296.84	5.99018	97.1694
0.095	296.917	6.01974	97.063
0.0975	296.994	6.04945	96.9569
0.1	297.07	6.07932	96.8509
0.1025	297.146	6.10935	96.7451
0.105	297.221	6.13954	96.6396
0.1075	297.296	6.1699	96.5342
0.11	297.37	6.20041	96.4291
0.1125	297.445	6.23109	96.3242
0.115	297.519	6.26192	96.2194
0.1175	297.592	6.29293	96.1149
0.12	297.665	6.3241	96.0106
0.1225	297.738	6.35543	95.9065
0.125	297.81	6.38693	95.8026
0.1275	297.882	6.4186	95.6989
0.13	297.954	6.45044	95.5955
0.1325	298.025	6.48245	95.4922
0.135	298.096	6.51462	95.3892
0.1375	298.167	6.54697	95.2863
0.14	298.237	6.57949	95.1837
0.1425	298.307	6.61219	95.0813
0.145	298.376	6.64505	94.979
0.1475	298.445	6.6781	94.877
0.15	298.513	6.71132	94.7752
0.1525	298.582	6.74471	94.6736
0.155	298.649	6.77828	94.5723
0.1575	298.717	6.81204	94.4711
0.16	298.784	6.84597	94.3702
0.1625	298.851	6.88008	94.2694
0.165	298.917	6.91437	94.1689
0.1675	298.983	6.94885	94.0686
0.17	299.048	6.98351	93.9685
0.1725	299.113	7.01835	93.8686
0.175	299.178	7.05338	93.7689
0.1775	299.242	7.0886	93.6694
0.18	299.306	7.124	93.5701
0.1825	299.369	7.15959	93.4711
0.185	299.432	7.19537	93.3723
0.1875	299.495	7.23134	93.2736
0.19	299.557	7.2675	93.1752
0.1925	299.619	7.30385	93.077
0.195	299.681	7.3404	92.9791
0.1975	299.742	7.37714	92.8813
0.2	299.802	7.41407	92.7837
0.2025	299.862	7.45121	92.6864
0.205	299.922	7.48854	92.5893
0.2075	299.982	7.52606	92.4924
0.21	300.041	7.56379	92.3957
0.2125	300.099	7.60172	92.2992
0.215	300.157	7.63984	92.2029
0.2175	300.215	7.67817	92.1069
0.22	300.272	7.71671	92.0111
0.2225	300.329	7.75545	91.9155
0.225	300.386	7.79439	91.8201
0.2275	300.442	7.83354	91.7249
0.23	300.497	7.8729	91.6299
0.2325	300.552	7.91247	91.5352
0.235	300.607	7.95224	91.4406
0.2375	300.661	7.99223	91.3463
0.24	300.715	8.03243	91.2522
0.2425	300.769	8.07284	91.1584
0.245	300.822	8.11347	91.0647
0.2475	300.874	8.15431	90.9713
0.25	300.927	8.19537	90.878
0.2525	300.978	8.23664	90.785
0.255	301.03	8.27814	90.6923
0.2575	301.08	8.31985	90.5997
0.26	301.131	8.36178	90.5074
0.2625	301.181	8.40394	90.4152
0.265	301.23	8.44632	90.3233
0.2675	301.279	8.48892	90.2317
0.27	301.328	8.53175	90.1402
0.2725	301.376	8.57481	90.049
0.275	301.424	8.61809	89.958
0.2775	301.471	8.6616	89.8672
0.28	301.518	8.70534	89.7766
0.2825	301.564	8.74932	89.6863
0.285	301.61	8.79352	89.5961
0.2875	301.656	8.83796	89.5062
0.29	301.701	8.88263	89.4166
0.2925	301.745	8.92754	89.3271
0.295	301.789	8.97269	89.2379
0.2975	301.833	9.01807	89.1489
0.3	301.876	9.06369	89.0601
0.3025	301.919	9.10956	88.9715
0.305	301.961	9.15566	88.8832
0.3075	302.003	9.20201	88.7951
0.31	302.044	9.24861	88.7072
0.3125	302.085	9.29544	88.6196
0.315	302.125	9.34253	88.5322
0.3175	302.165	9.38986	88.445
0.32	302.205	9.43744	88.358
0.3225	302.243	9.48528	88.2713
0.325	302.282	9.53336	88.1848
0.3275	302.32	9.5817	88.0985
0.33	302.357	9.63029	88.0124
0.3325	302.394	9.67914	87.9266
0.335	302.431	9.72824	87.841
0.3375	302.467	9.7776	87.7556
0.34	302.502	9.82722	87.6705
0.3425	302.537	9.8771	87.5856
0.345	302.572	9.92725	87.5009
0.3475	302.606	9.97765	87.4165
0.35	302.639	10.0283	87.3323
0.3525	302.672	10.0793	87.2483
0.355	302.705	10.1305	87.1645
0.3575	302.737	10.1819	87.081
0.36	302.769	10.2337	86.9977
0.3625	302.8	10.2857	86.9147
0.365	302.83	10.338	86.8319
0.3675	302.86	10.3905	86.7493
0.37	302.89	10.4434	86.667
0.3725	302.919	10.4965	86.5849
0.375	302.947	10.5499	86.503
0.3775	302.975	10.6035	86.4213
0.38	303.003	10.6575	86.3399
0.3825	303.03	10.7117	86.2588
0.385	303.056	10.7662	86.1779
0.3875	303.082	10.821	86.0972
0.39	303.107	10.8761	86.0167
0.3925	303.132	10.9315	85.9365
0.395	303.156	10.9871	85.8565
0.3975	303.18	11.0431	85.7768
0.4	303.203	11.0993	85.6973
0.4025	303.226	11.1558	85.6181
0.405	303.248	11.2127	85.539
0.4075	303.27	11.2698	85.4603
0.41	303.291	11.3272	85.3817
0.4125	303.312	11.3849	85.3035
0.415	303.332	11.4429	85.2254
0.4175	303.351	11.5013	85.1476
0.42	303.37	11.5599	85.07
0.4225	303.388	11.6188	84.9927
0.425	303.406	11.678	84.9157
0.4275	303.424	11.7376	84.8388
0.43	303.44	11.7974	84.7623
0.4325	303.457	11.8576	84.6859
0.435	303.472	11.918	84.6098
0.4375	303.487	11.9788	84.534
0.44	303.502	12.0399	84.4584
0.4425	303.516	12.1013	84.383
0.445	303.529	12.1631	84.3079
0.4475	303.542	12.2251	84.2331
0.45	303.554	12.2875	84.1585
0.4525	303.566	12.3502	84.0841
0.455	303.577	12.4132	84.01
0.4575	303.587	12.4765	83.9362
0.46	303.597	12.5402	83.8626
0.4625	303.607	12.6042	83.7892
0.465	303.615	12.6685	83.7161
0.4675	303.624	12.7331	83.6433
0.47	303.631	12.7981	83.5707
0.4725	303.638	12.8635	83.4983
0.475	303.645	12.9291	83.4262
0.4775	303.65	12.9951	83.3544
0.48	303.656	13.0614	83.2828
0.4825	303.66	13.1281	83.2115
0.485	303.664	13.1951	83.1404
0.4875	303.668	13.2625	83.0696
0.49	303.671	13.3302	82.9991
0.4925	303.673	13.3982	82.9288
0.495	303.675	13.4666	82.8587
0.4975	303.676	13.5354	82.789
0.5	303.676	13.6045	82.7194
0.5025	303.676	13.6739	82.6502
0.505	303.675	13.7437	82.5812
0.5075	303.674	13.8139	82.5125
0.51	303.672	13.8844	82.444
0.5125	303.669	13.9553	82.3758
0.515	303.666	14.0265	82.3078
0.5175	303.662	14.0981	82.2401
0.52	303.657	14.1701	82.1727
0.5225	303.652	14.2424	82.1055
0.525	303.646	14.3151	82.0387
0.5275	303.64	14.3881	81.972
0.53	303.633	14.4616	81.9057
0.5325	303.625	14.5354	81.8396
0.535	303.617	14.6096	81.7737
0.5375	303.608	14.6841	81.7082
0.54	303.598	14.7591	81.6429
0.5425	303.588	14.8344	81.5779
0.545	303.577	14.9101	81.5131
0.5475	303.565	14.9861	81.4486
0.55	303.553	15.0626	81.3844
0.5525	303.54	15.1394	81.3205
0.555	303.526	15.2167	81.2568
0.5575	303.512	15.2943	81.1934
0.56	303.497	15.3723	81.1303
0.5625	303.482	15.4507	81.0675
0.565	303.466	15.5295	81.0049
0.5675	303.449	15.6087	80.9426
0.57	303.431	15.6883	80.8806
0.5725	303.413	15.7683	80.8188
0.575	303.394	15.8487	80.7574
0.5775	303.374	15.9294	80.6962
0.58	303.354	16.0106	80.6353
0.5825	303.333	16.0922	80.5747
0.585	303.311	16.1742	80.5143
0.5875	303.289	16.2567	80.4542
0.59	303.266	16.3395	80.3945
0.5925	303.242	16.4227	80.335
0.595	303.218	16.5064	80.2757
0.5975	303.193	16.5904	80.2168
0.6	303.167	16.6749	80.1581
0.6025	303.14	16.7598	80.0998
0.605	303.113	16.8451	80.0417
0.6075	303.085	16.9309	79.9839
0.61	303.057	17.0171	79.9264
0.6125	303.027	17.1037	79.8692
0.615	302.997	17.1907	79.8122
0.6175	302.966	17.2782	79.7556
0.62	302.935	17.366	79.6992
0.6225	302.902	17.4544	79.6432
0.625	302.869	17.5431	79.5874
0.6275	302.836	17.6323	79.5319
0.63	302.801	17.7219	79.4767
0.6325	302.766	17.812	79.4218
0.635	302.73	17.9025	79.3672
0.6375	302.694	17.9935	79.3129
0.64	302.656	18.0849	79.2589
0.6425	302.618	18.1767	79.2052
0.645	302.579	18.269	79.1518
0.6475	302.54	18.3618	79.0987
0.65	302.499	18.455	79.0459
0.6525	302.458	18.5486	78.9933
0.655	302.416	18.6427	78.9411
0.6575	302.373	18.7373	78.8892
0.66	302.33	18.8323	78.8376
0.6625	302.286	18.9278	78.7863
0.665	302.241	19.0238	78.7353
0.6675	302.195	19.1202	78.6845
0.67	302.149	19.2171	78.6341
0.6725	302.102	19.3144	78.584
0.675	302.053	19.4123	78.5343
0.6775	302.005	19.5105	78.4848
0.68	301.955	19.6093	78.4356
0.6825	301.905	19.7086	78.3867
0.685	301.854	19.8083	78.3382
0.6875	301.802	19.9085	78.2899
0.69	301.749	20.0092	78.242
0.6925	301.695	20.1103	78.1944
0.695	301.641	20.212	78.1471
0.6975	301.586	20.3141	78.1001
0.7	301.53	20.4167	78.0534
0.7025	301.473	20.5198	78.007
0.705	301.416	20.6234	77.961
0.7075	301.357	20.7275	77.9152
0.71	301.298	20.8321	77.8698
0.7125	301.238	20.9372	77.8247
0.715	301.177	21.0428	77.7799
0.7175	301.116	21.1489	77.7355
0.72	301.053	21.2554	77.6913
0.7225	300.99	21.3625	77.6475
0.725	300.926	21.4701	77.604
0.7275	300.861	21.5782	77.5609
0.73	300.795	21.6868	77.518
0.7325	300.729	21.796	77.4755
0.735	300.661	21.9056	77.4333
0.7375	300.593	22.0157	77.3914
0.74	300.524	22.1264	77.3499
0.7425	300.454	22.2376	77.3087
0.745	300.383	22.3493	77.2678
0.7475	300.311	22.4615	77.2273
0.75	300.239	22.5742	77.1871
0.7525	300.165	22.6875	77.1472
0.755	300.091	22.8013	77.1076
0.7575	300.016	22.9156	77.0684
0.76	299.94	23.0305	77.0295
0.7625	299.863	23.1459	76.991
0.765	299.785	23.2618	76.9528
0.7675	299.707	23.3782	76.9149
0.77	299.627	23.4952	76.8774
0.7725	299.547	23.6127	76.8402
0.775	299.466	23.7308	76.8034
0.7775	299.384	23.8494	76.7669
0.78	299.301	23.9686	76.7307
0.7825	299.217	24.0883	76.6949
0.785	299.132	24.2085	76.6594
0.7875	299.046	24.3293	76.6243
0.79	298.96	24.4506	76.5895
0.7925	298.872	24.5725	76.555
0.795	298.784	24.695	76.521
0.7975	298.695	24.818	76.4872
0.8	298.605	24.9415	76.4538
0.8025	298.514	25.0657	76.4208
0.805	298.422	25.1903	76.3881
0.8075	298.329	25.3156	76.3558
0.81	298.235	25.4414	76.3238
0.8125	298.14	25.5677	76.2922
0.815	298.044	25.6947	76.2609
0.8175	297.948	25.8222	76.23
0.82	297.85	25.9503	76.1994
0.8225	297.752	26.0789	76.1692
0.825	297.652	26.2081	76.1394
0.8275	297.552	26.3379	76.1099
0.83	297.451	26.4683	76.0808
0.8325	297.349	26.5992	76.0521
0.835	297.246	26.7307	76.0237
0.8375	297.141	26.8628	75.9957
0.84	297.036	26.9955	75.968
0.8425	296.93	27.1288	75.9407
0.845	296.824	27.2626	75.9138
0.8475	296.716	27.3971	75.8873
0.85	296.607	27.5321	75.8611
0.8525	296.497	27.6677	75.8353
0.855	296.386	27.8039	75.8098
0.8575	296.274	27.9408	75.7848
0.86	296.162	28.0781	75.7601
0.8625	296.048	28.2161	75.7357
0.865	295.933	28.3547	75.7118
0.8675	295.818	28.4939	75.6882
0.87	295.701	28.6337	75.6651
0.8725	295.584	28.7741	75.6422
0.875	295.465	28.9151	75.6198
0.8775	295.346	29.0567	75.5978
0.88	295.225	29.1989	75.5761
0.8825	295.103	29.3417	75.5548
0.885	294.981	29.4851	75.5339
0.8875	294.857	29.6292	75.5134
0.89	294.733	29.7738	75.4933
0.8925	294.607	29.9191	75.4736
0.895	294.481	30.0649	75.4542
0.8975	294.353	30.2114	75.4352
0.9	294.225	30.3585	75.4167
0.9025	294.095	30.5062	75.3985
0.905	293.965	30.6546	75.3807
0.9075	293.833	30.8035	75.3633
0.91	293.701	30.9531	75.3463
0.9125	293.567	31.1033	75.3297
0.915	293.432	31.2541	75.3135
0.9175	293.297	31.4056	75.2977
0.92	293.16	31.5577	75.2823
0.9225	293.022	31.7104	75.2673
0.925	292.884	31.8637	75.2527
0.9275	292.744	32.0177	75.2385
0.93	292.603	32.1723	75.2247
0.9325	292.461	32.3275	75.2113
0.935	292.318	32.4834	75.1983
0.9375	292.174	32.6399	75.1857
0.94	292.029	32.797	75.1735
0.9425	291.883	32.9548	75.1617
0.945	291.736	33.1132	75.1504
0.9475	291.588	33.2722	75.1394
0.95	291.439	33.4319	75.1289
0.9525	291.289	33.5922	75.1188
0.955	291.138	33.7532	75.1091
0.9575	290.985	33.9148	75.0998
0.96	290.832	34.077	75.0909
0.9625	290.678	34.2399	75.0824
0.965	290.522	34.4035	75.0744
0.9675	290.366	34.5677	75.0668
0.97	290.208	34.7325	75.0596
0.9725	290.049	34.898	75.0528
0.975	289.889	35.0641	75.0464
0.9775	289.729	35.2309	75.0405
0.98	289.567	35.3983	75.035
0.9825	289.404	35.5664	75.0299
0.985	289.24	35.7352	75.0252
0.9875	289.074	35.9045	75.021
0.99	288.908	36.0746	75.0172
0.9925	288.741	36.2453	75.0138
0.995	288.572	36.4166	75.0109
0.9975	288.403	36.5886	75.0084
1	288.232	36.7613	75.0063
1.0025	288.061	36.9346	75.0047
1.005	287.888	37.1086	75.0035
1.0075	287.714	37.2832	75.0027
1.01	287.539	37.4585	75.0024
1.0125	287.363	37.6345	75.0025
1.015	287.186	37.8111	75.003
1.0175	287.008	37.9884	75.004
1.02	286.828	38.1663	75.0055
1.0225	286.648	38.3449	75.0074
1.025	286.466	38.5242	75.0097
1.0275	286.283	38.7041	75.0124
1.03	286.1	38.8846	75.0157
1.0325	285.915	39.0659	75.0193
1.035	285.729	39.2478	75.0234
1.0375	285.542	39.4304	75.028
1.04	285.353	39.6136	75.033
1.0425	285.164	39.7975	75.0385
1.045	284.974	39.982	75.0444
1.0475	284.782	40.1673	75.0508
1.05	284.589	40.3532	75.0576
1.0525	284.395	40.5397	75.0649
1.055	284.2	40.7269	75.0727
1.0575	284.004	40.9148	75.0809
1.06	283.807	41.1033	75.0895
1.0625	283.609	41.2926	75.0987
1.065	283.409	41.4824	75.1083
1.0675	283.209	41.673	75.1183
1.07	283.007	41.8642	75.1288
1.0725	282.804	42.056	75.1398
1.075	282.6	42.2486	75.1513
1.0775	282.395	42.4418	75.1632
1.08	282.189	42.6356	75.1756
1.0825	281.981	42.8302	75.1884
1.085	281.773	43.0253	75.2017
1.0875	281.563	43.2212	75.2155
1.09	281.352	43.4177	75.2298
1.0925	281.141	43.6149	75.2445
1.095	280.928	43.8127	75.2598
1.0975	280.713	44.0112	75.2755
1.1	280.498	44.2104	75.2916
1.1025	280.281	44.4102	75.3083
1.105	280.064	44.6107	75.3254
1.1075	279.845	44.8119	75.343
1.11	279.625	45.0137	75.3611
1.1125	279.404	45.2161	75.3797
1.115	279.182	45.4193	75.3987
1.1175	278.959	45.6231	75.4183
1.12	278.734	45.8275	75.4383
1.1225	278.509	46.0326	75.4588
1.125	278.282	46.2384	75.4798
1.1275	278.054	46.4448	75.5013
1.13	277.825	46.6519	75.5233
1.1325	277.595	46.8596	75.5458
1.135	277.363	47.068	75.5687
1.1375	277.131	47.277	75.5922
1.14	276.897	47.4867	75.6161
1.1425	276.662	47.697	75.6406
1.145	276.427	47.908	75.6655
1.1475	276.189	48.1196	75.691
1.15	275.951	48.3319	75.7169
1.1525	275.712	48.5448	75.7433
1.155	275.471	48.7584	75.7703
1.1575	275.23	48.9726	75.7977
1.16	274.987	49.1874	75.8256
1.1625	274.743	49.4029	75.8541
1.165	274.498	49.6191	75.883
1.1675	274.252	49.8359	75.9125
1.17	274.004	50.0533	75.9424
1.1725	273.756	50.2713	75.9729
1.175	273.506	50.49	76.0038
1.1775	273.255	50.7094	76.0353
1.18	273.003	50.9293	76.0673
1.1825	272.75	51.1499	76.0998
1.185	272.496	51.3711	76.1328
1.1875	272.241	51.593	76.1663
1.19	271.984	51.8154	76.2003
1.1925	271.727	52.0385	76.2349
1.195	271.468	52.2623	76.2699
1.1975	271.208	52.4866	76.3055
1.2	270.947	52.7116	76.3416
1.2025	270.685	52.9371	76.3782
1.205	270.421	53.1633	76.4154
1.2075	270.157	53.3902	76.453
1.21	269.891	53.6176	76.4912
1.2125	269.625	53.8456	76.5299
1.215	269.357	54.0743	76.5691
1.2175	269.088	54.3035	76.6088
1.22	268.818	54.5334	76.6491
1.2225	268.546	54.7638	76.6899
1.225	268.274	54.9949	76.7312
1.2275	268	55.2265	76.773
1.23	267.726	55.4588	76.8154
1.2325	267.45	55.6916	76.8583
1.235	267.173	55.925	76.9017
1.2375	266.895	56.1591	76.9456
1.24	266.616	56.3937	76.9901
1.2425	266.336	56.6289	77.0351
1.245	266.055	56.8647	77.0807
1.2475	265.772	57.101	77.1267
1.25	265.489	57.3379	77.1734
1.2525	265.204	57.5754	77.2205
1.255	264.918	57.8135	77.2682
1.2575	264.631	58.0522	77.3164
1.26	264.343	58.2914	77.3652
1.2625	264.054	58.5312	77.4144
1.265	263.764	58.7715	77.4643
1.2675	263.473	59.0124	77.5146
1.27	263.181	59.2538	77.5655
1.2725	262.887	59.4958	77.617
1.275	262.593	59.7384	77.669
1.2775	262.297	59.9815	77.7215
1.28	262	60.2251	77.7746
1.2825	261.702	60.4693	77.8282
1.285	261.404	60.714	77.8824
1.2875	261.104	60.9593	77.9371
1.29	260.803	61.2051	77.9923
1.2925	260.501	61.4514	78.0481
1.295	260.197	61.6982	78.1045
1.2975	259.893	61.9456	78.1613
1.3	259.588	62.1935	78.2188
1.3025	259.281	62.4418	78.2768
1.305	258.974	62.6907	78.3353
1.3075	258.665	62.9402	78.3944
1.31	258.356	63.1901	78.454
1.3125	258.045	63.4405	78.5142
1.315	257.734	63.6914	78.5749
1.3175	257.421	63.9428	78.6362
1.32	257.107	64.1947	78.6981
1.3225	256.792	64.4471	78.7604
1.325	256.477	64.6999	78.8234
1.3275	256.16	64.9533	78.8869
1.33	255.842	65.2071	78.9509
1.3325	255.523	65.4614	79.0155
1.335	255.203	65.7161	79.0807
1.3375	254.882	65.9713	79.1464
1.34	254.56	66.227	79.2127
1.3425	254.237	66.4831	79.2795
1.345	253.913	66.7397	79.3469
1.3475	253.588	66.9967	79.4149
1.35	253.262	67.2542	79.4834
1.3525	252.935	67.5121	79.5524
1.355	252.608	67.7705	79.622
1.3575	252.279	68.0292	79.6922
1.36	251.949	68.2884	79.763
1.3625	251.618	68.548	79.8342
1.365	251.286	68.8081	79.9061
1.3675	250.953	69.0685	79.9785
1.37	250.619	69.3294	80.0515
1.3725	250.284	69.5906	80.125
1.375	249.949	69.8523	80.1991
1.3775	249.612	70.1144	80.2738
1.38	249.274	70.3768	80.349
1.3825	248.936	70.6396	80.4248
1.385	248.596	70.9028	80.5012
1.3875	248.256	71.1664	80.5781
1.39	247.914	71.4304	80.6556
1.3925	247.572	71.6947	80.7336
1.395	247.228	71.9594	80.8122
1.3975	246.884	72.2244	80.8914
1.4	246.539	72.4898	80.9711
1.4025	246.193	72.7555	81.0514
1.405	245.846	73.0216	81.1322
1.4075	245.498	73.288	81.2137
1.41	245.15	73.5548	81.2956
1.4125	244.8	73.8219	81.3782
1.415	244.449	74.0893	81.4613
1.4175	244.098	74.357	81.545
1.42	243.746	74.625	81.6292
1.4225	243.393	74.8933	81.714
1.425	243.039	75.1619	81.7994
1.4275	242.684	75.4309	81.8853
1.43	242.328	75.7001	81.9718
1.4325	241.972	75.9696	82.0589
1.435	241.614	76.2394	82.1466
1.4375	241.256	76.5094	82.2347
1.44	240.897	76.7797	82.3235
1.4425	240.537	77.0503	82.4128
1.445	240.176	77.3211	82.5027
1.4475	239.815	77.5922	82.5932
1.45	239.452	77.8636	82.6842
1.4525	239.089	78.1351	82.7758
1.455	238.725	78.407	82.8679
1.4575	238.36	78.679	82.9607
1.46	237.995	78.9513	83.0539
1.4625	237.628	79.2237	83.1478
1.465	237.261	79.4964	83.2422
1.4675	236.894	79.7693	83.3372
1.47	236.525	80.0424	83.4327
1.4725	236.155	80.3157	83.5288
1.475	235.785	80.5892	83.6254
1.4775	235.414	80.8629	83.7227
1.48	235.043	81.1367	83.8205
1.4825	234.67	81.4107	83.9188
1.485	234.297	81.6849	84.0177
1.4875	233.924	81.9592	84.1172
1.49	233.549	82.2337	84.2172
1.4925	233.174	82.5083	84.3178
1.495	232.798	82.7831	84.419
1.4975	232.421	83.058	84.5207
1.5	232.044	83.333	84.6229
1.5025	231.666	83.6082	84.7258
1.505	231.287	83.8834	84.8292
1.5075	230.908	84.1588	84.9331
1.51	230.528	84.4343	85.0376
1.5125	230.147	84.7099	85.1427
1.515	229.766	84.9855	85.2483
1.5175	229.384	85.2613	85.3545
1.52	229.002	85.5371	85.4612
1.5225	228.618	85.813	85.5685
1.525	228.235	86.0889	85.6764
1.5275	227.85	86.365	85.7848
1.53	227.465	86.641	85.8938
1.5325	227.08	86.9171	86.0033
1.535	226.693	87.1933	86.1133
1.5375	226.307	87.4695	86.224
1.54	225.919	87.7457	86.3351
1.5425	225.531	88.0219	86.4468
1.545	225.143	88.2982	86.5591
1.5475	224.754	88.5744	86.6719
1.55	224.364	88.8507	86.7853
1.5525	223.974	89.1269	86.8992
1.555	223.583	89.4031	87.0137
1.5575	223.192	89.6793	87.1287
1.56	222.8	89.9555	87.2443
1.5625	222.408	90.2317	87.3604
1.565	222.015	90.5078	87.477
1.5675	221.622	90.7838	87.5942
1.57	221.228	91.0598	87.712
1.5725	220.834	91.3358	87.8302
1.575	220.439	91.6117	87.9491
1.5775	220.044	91.8875	88.0684
1.58	219.648	92.1632	88.1883
1.5825	219.252	92.4388	88.3088
1.585	218.856	92.7144	88.4298
1.5875	218.459	92.9898	88.5513
1.59	218.062	93.2651	88.6733
1.5925	217.664	93.5404	88.7959
1.595	217.266	93.8155	88.919
1.5975	216.867	94.0904	89.0427
1.6	216.468	94.3653	89.1669
1.6025	216.068	94.6399	89.2916
1.605	215.669	94.9145	89.4168
1.6075	215.268	95.1889	89.5426
1.61	214.868	95.4631	89.6689
1.6125	214.467	95.7372	89.7958
1.615	214.066	96.011	89.9231
1.6175	213.664	96.2847	90.051
1.62	213.262	96.5582	90.1794
1.6225	212.86	96.8316	90.3084
1.625	212.458	97.1047	90.4378
1.6275	212.055	97.3776	90.5678
1.63	211.651	97.6502	90.6983
1.6325	211.248	97.9227	90.8293
1.635	210.844	98.1949	90.9608
1.6375	210.44	98.4669	91.0929
1.64	210.036	98.7387	91.2254
1.6425	209.631	99.0102	91.3585
1.645	209.227	99.2814	91.4921
1.6475	208.821	99.5524	91.6262
1.65	208.416	99.8231	91.7608
1.6525	208.011	100.093	91.8959
1.655	207.605	100.364	92.0315
1.6575	207.199	100.633	92.1676
1.66	206.793	100.903	92.3043
